#
# Energy [eV]     Absorption [arbitrary units]
#---------------------------------------------
 0  0  
 0.0760021  4.12582e-10  
 0.152004  1.65397e-09  
 0.228006  3.73742e-09  
 0.304008  6.68827e-09  
 0.38001  1.05379e-08  
 0.456012  1.53051e-08  
 0.532015  2.09729e-08  
 0.608017  2.7479e-08  
 0.684019  3.47353e-08  
 0.760021  4.26773e-08  
 0.836023  5.13204e-08  
 0.912025  6.07872e-08  
 0.988027  7.12768e-08  
 1.06403  8.29737e-08  
 1.14003  9.59361e-08  
 1.21603  1.10025e-07  
 1.29204  1.24927e-07  
 1.36804  1.40292e-07  
 1.44404  1.55915e-07  
 1.52004  1.71898e-07  
 1.59604  1.88669e-07  
 1.67205  2.06824e-07  
 1.74805  2.26855e-07  
 1.82405  2.48864e-07  
 1.90005  2.72444e-07  
 1.97605  2.968e-07  
 2.05206  3.21104e-07  
 2.12806  3.44928e-07  
 2.20406  3.68543e-07  
 2.28006  3.92901e-07  
 2.35606  4.19261e-07  
 2.43207  4.486e-07  
 2.50807  4.81077e-07  
 2.58407  5.15846e-07  
 2.66007  5.51355e-07  
 2.73607  5.86048e-07  
 2.81208  6.19168e-07  
 2.88808  6.5126e-07  
 2.96408  6.84075e-07  
 3.04008  7.19864e-07  
 3.11609  7.60316e-07  
 3.19209  8.05666e-07  
 3.26809  8.54419e-07  
 3.34409  9.03916e-07  
 3.42009  9.51556e-07  
 3.4961  9.96121e-07  
 3.5721  1.03857e-06  
 3.6481  1.08183e-06  
 3.7241  1.12959e-06  
 3.8001  1.18456e-06  
 3.87611  1.24708e-06  
 3.95211  1.31473e-06  
 4.02811  1.38327e-06  
 4.10411  1.44863e-06  
 4.18011  1.50896e-06  
 4.25612  1.56586e-06  
 4.33212  1.62399e-06  
 4.40812  1.68911e-06  
 4.48412  1.76544e-06  
 4.56012  1.85349e-06  
 4.63613  1.94949e-06  
 4.71213  2.04697e-06  
 4.78813  2.13978e-06  
 4.86413  2.22525e-06  
 4.94013  2.30602e-06  
 5.01614  2.38937e-06  
 5.09214  2.48425e-06  
 5.16814  2.59716e-06  
 5.24414  2.7289e-06  
 5.32015  2.87381e-06  
 5.39615  3.02218e-06  
 5.47215  3.16492e-06  
 5.54815  3.29841e-06  
 5.62415  3.42721e-06  
 5.70016  3.563e-06  
 5.77616  3.71997e-06  
 5.85216  3.90849e-06  
 5.92816  4.13014e-06  
 6.00416  4.37664e-06  
 6.08017  4.63365e-06  
 6.15617  4.88813e-06  
 6.23217  5.136e-06  
 6.30817  5.38632e-06  
 6.38417  5.65964e-06  
 6.46018  5.98055e-06  
 6.53618  6.36767e-06  
 6.61218  6.82572e-06  
 6.68818  7.34398e-06  
 6.76418  7.90289e-06  
 6.84019  8.48651e-06  
 6.91619  9.09566e-06  
 6.99219  9.75523e-06  
 7.06819  1.05114e-05  
 7.1442  1.14189e-05  
 7.2202  1.25235e-05  
 7.2962  1.38485e-05  
 7.3722  1.53925e-05  
 7.4482  1.71439e-05  
 7.52421  1.91058e-05  
 7.60021  2.13227e-05  
 7.67621  2.3893e-05  
 7.75221  2.69561e-05  
 7.82821  3.06497e-05  
 7.90422  3.50459e-05  
 7.98022  4.0084e-05  
 8.05622  4.55259e-05  
 8.13222  5.09539e-05  
 8.20822  5.58216e-05  
 8.28423  5.9552e-05  
 8.36023  6.1658e-05  
 8.43623  6.18539e-05  
 8.51223  6.01242e-05  
 8.58823  5.67298e-05  
 8.66424  5.21471e-05  
 8.74024  4.69598e-05  
 8.81624  4.17326e-05  
 8.89224  3.69035e-05  
 8.96824  3.27229e-05  
 9.04425  2.92495e-05  
 9.12025  2.63974e-05  
 9.19625  2.401e-05  
 9.27225  2.19349e-05  
 9.34826  2.0074e-05  
 9.42426  1.83982e-05  
 9.50026  1.69283e-05  
 9.57626  1.56994e-05  
 9.65226  1.47247e-05  
 9.72827  1.3977e-05  
 9.80427  1.33924e-05  
 9.88027  1.28928e-05  
 9.95627  1.24144e-05  
 10.0323  1.19287e-05  
 10.1083  1.14469e-05  
 10.1843  1.10073e-05  
 10.2603  1.06517e-05  
 10.3363  1.04023e-05  
 10.4123  1.02502e-05  
 10.4883  1.01585e-05  
 10.5643  1.0079e-05  
 10.6403  9.97293e-06  
 10.7163  9.82723e-06  
 10.7923  9.65772e-06  
 10.8683  9.49956e-06  
 10.9443  9.38923e-06  
 11.0203  9.34684e-06  
 11.0963  9.36675e-06  
 11.1723  9.42059e-06  
 11.2483  9.47061e-06  
 11.3243  9.48696e-06  
 11.4003  9.46079e-06  
 11.4763  9.40727e-06  
 11.5523  9.35749e-06  
 11.6283  9.34329e-06  
 11.7043  9.38227e-06  
 11.7803  9.46982e-06  
 11.8563  9.58165e-06  
 11.9323  9.68537e-06  
 12.0083  9.75554e-06  
 12.0843  9.7851e-06  
 12.1603  9.78808e-06  
 12.2363  9.79243e-06  
 12.3123  9.82672e-06  
 12.3883  9.90671e-06  
 12.4643  1.00283e-05  
 12.5403  1.01696e-05  
 12.6163  1.03017e-05  
 12.6923  1.04018e-05  
 12.7683  1.04637e-05  
 12.8444  1.05005e-05  
 12.9204  1.05378e-05  
 12.9964  1.06019e-05  
 13.0724  1.07071e-05  
 13.1484  1.08497e-05  
 13.2244  1.10097e-05  
 13.3004  1.11603e-05  
 13.3764  1.12805e-05  
 13.4524  1.13647e-05  
 13.5284  1.14252e-05  
 13.6044  1.14858e-05  
 13.6804  1.15711e-05  
 13.7564  1.16946e-05  
 13.8324  1.18527e-05  
 13.9084  1.20266e-05  
 13.9844  1.21914e-05  
 14.0604  1.23273e-05  
 14.1364  1.24291e-05  
 14.2124  1.25082e-05  
 14.2884  1.25874e-05  
 14.3644  1.26897e-05  
 14.4404  1.28281e-05  
 14.5164  1.29991e-05  
 14.5924  1.3185e-05  
 14.6684  1.33621e-05  
 14.7444  1.35115e-05  
 14.8204  1.36284e-05  
 14.8964  1.37236e-05  
 14.9724  1.38188e-05  
 15.0484  1.39359e-05  
 15.1244  1.40875e-05  
 15.2004  1.42702e-05  
 15.2764  1.44673e-05  
 15.3524  1.46558e-05  
 15.4284  1.48178e-05  
 15.5044  1.49485e-05  
 15.5804  1.50584e-05  
 15.6564  1.5168e-05  
 15.7324  1.52989e-05  
 15.8084  1.54628e-05  
 15.8844  1.56568e-05  
 15.9604  1.58647e-05  
 16.0364  1.60644e-05  
 16.1124  1.62386e-05  
 16.1884  1.63825e-05  
 16.2644  1.65061e-05  
 16.3404  1.66296e-05  
 16.4164  1.67735e-05  
 16.4925  1.69494e-05  
 16.5685  1.71546e-05  
 16.6445  1.73733e-05  
 16.7205  1.75842e-05  
 16.7965  1.77703e-05  
 16.8725  1.79271e-05  
 16.9485  1.80642e-05  
 17.0245  1.8201e-05  
 17.1005  1.83576e-05  
 17.1765  1.85454e-05  
 17.2525  1.87618e-05  
 17.3285  1.89914e-05  
 17.4045  1.92136e-05  
 17.4805  1.94118e-05  
 17.5565  1.95813e-05  
 17.6325  1.97316e-05  
 17.7085  1.98815e-05  
 17.7845  2.00507e-05  
 17.8605  2.02504e-05  
 17.9365  2.04781e-05  
 18.0125  2.07189e-05  
 18.0885  2.09525e-05  
 18.1645  2.11628e-05  
 18.2405  2.1345e-05  
 18.3165  2.15083e-05  
 18.3925  2.16712e-05  
 18.4685  2.18529e-05  
 18.5445  2.20645e-05  
 18.6205  2.23036e-05  
 18.6965  2.25557e-05  
 18.7725  2.2801e-05  
 18.8485  2.30233e-05  
 18.9245  2.32182e-05  
 19.0005  2.33945e-05  
 19.0765  2.35703e-05  
 19.1525  2.37644e-05  
 19.2285  2.39879e-05  
 19.3045  2.42385e-05  
 19.3805  2.4502e-05  
 19.4565  2.47588e-05  
 19.5325  2.49933e-05  
 19.6085  2.52008e-05  
 19.6845  2.53899e-05  
 19.7605  2.55783e-05  
 19.8365  2.57848e-05  
 19.9125  2.602e-05  
 19.9885  2.6282e-05  
 20.0645  2.65569e-05  
 20.1405  2.68254e-05  
 20.2166  2.70719e-05  
 20.2926  2.72917e-05  
 20.3686  2.74933e-05  
 20.4446  2.76941e-05  
 20.5206  2.79126e-05  
 20.5966  2.81594e-05  
 20.6726  2.84326e-05  
 20.7486  2.87186e-05  
 20.8246  2.89985e-05  
 20.9006  2.92566e-05  
 20.9766  2.94885e-05  
 21.0526  2.97022e-05  
 21.1286  2.99149e-05  
 21.2046  3.01449e-05  
 21.2806  3.04029e-05  
 21.3566  3.06869e-05  
 21.4326  3.09836e-05  
 21.5086  3.12743e-05  
 21.5846  3.15437e-05  
 21.6606  3.17869e-05  
 21.7366  3.20121e-05  
 21.8126  3.22361e-05  
 21.8886  3.24769e-05  
 21.9646  3.27453e-05  
 22.0406  3.30394e-05  
 22.1166  3.33462e-05  
 22.1926  3.36471e-05  
 22.2686  3.39268e-05  
 22.3446  3.41806e-05  
 22.4206  3.44162e-05  
 22.4966  3.46505e-05  
 22.5726  3.49012e-05  
 22.6486  3.5179e-05  
 22.7246  3.54823e-05  
 22.8006  3.57981e-05  
 22.8766  3.6108e-05  
 22.9526  3.6397e-05  
 23.0286  3.66601e-05  
 23.1046  3.6905e-05  
 23.1806  3.71483e-05  
 23.2566  3.74076e-05  
 23.3326  3.76935e-05  
 23.4086  3.80046e-05  
 23.4846  3.8328e-05  
 23.5606  3.86456e-05  
 23.6366  3.89423e-05  
 23.7126  3.92133e-05  
 23.7886  3.94659e-05  
 23.8647  3.97164e-05  
 23.9407  3.99826e-05  
 24.0167  4.02749e-05  
 24.0927  4.05921e-05  
 24.1687  4.09214e-05  
 24.2447  4.12449e-05  
 24.3207  4.15475e-05  
 24.3967  4.18243e-05  
 24.4727  4.20826e-05  
 24.5487  4.23385e-05  
 24.6247  4.26095e-05  
 24.7007  4.29061e-05  
 24.7767  4.32272e-05  
 24.8527  4.35603e-05  
 24.9287  4.38875e-05  
 25.0047  4.41938e-05  
 25.0807  4.44742e-05  
 25.1567  4.47358e-05  
 25.2327  4.49946e-05  
 25.3087  4.5268e-05  
 25.3847  4.55666e-05  
 25.4607  4.58892e-05  
 25.5367  4.62236e-05  
 25.6127  4.65519e-05  
 25.6887  4.68594e-05  
 25.7647  4.71407e-05  
 25.8407  4.7403e-05  
 25.9167  4.7662e-05  
 25.9927  4.79351e-05  
 26.0687  4.82329e-05  
 26.1447  4.85543e-05  
 26.2207  4.88871e-05  
 26.2967  4.92139e-05  
 26.3727  4.95196e-05  
 26.4487  4.9799e-05  
 26.5247  5.0059e-05  
 26.6007  5.03154e-05  
 26.6767  5.05852e-05  
 26.7527  5.08792e-05  
 26.8287  5.11964e-05  
 26.9047  5.15249e-05  
 26.9807  5.1847e-05  
 27.0567  5.2148e-05  
 27.1327  5.24225e-05  
 27.2087  5.26773e-05  
 27.2847  5.29279e-05  
 27.3607  5.31915e-05  
 27.4367  5.34787e-05  
 27.5128  5.37887e-05  
 27.5888  5.41097e-05  
 27.6648  5.44242e-05  
 27.7408  5.47175e-05  
 27.8168  5.49841e-05  
 27.8928  5.52306e-05  
 27.9688  5.54725e-05  
 28.0448  5.57268e-05  
 28.1208  5.60043e-05  
 28.1968  5.63042e-05  
 28.2728  5.66149e-05  
 28.3488  5.6919e-05  
 28.4248  5.72017e-05  
 28.5008  5.74576e-05  
 28.5768  5.76931e-05  
 28.6528  5.79235e-05  
 28.7288  5.81658e-05  
 28.8048  5.84309e-05  
 28.8808  5.87181e-05  
 28.9568  5.90158e-05  
 29.0328  5.93069e-05  
 29.1088  5.95766e-05  
 29.1848  5.98192e-05  
 29.2608  6.00412e-05  
 29.3368  6.02577e-05  
 29.4128  6.04858e-05  
 29.4888  6.07362e-05  
 29.5648  6.10085e-05  
 29.6408  6.12912e-05  
 29.7168  6.15672e-05  
 29.7928  6.18217e-05  
 29.8688  6.20491e-05  
 29.9448  6.22557e-05  
 30.0208  6.24565e-05  
 30.0968  6.26685e-05  
 30.1728  6.29025e-05  
 30.2488  6.31582e-05  
 30.3248  6.34243e-05  
 30.4008  6.36838e-05  
 30.4768  6.39218e-05  
 30.5528  6.41327e-05  
 30.6288  6.43226e-05  
 30.7048  6.45064e-05  
 30.7808  6.47012e-05  
 30.8568  6.49178e-05  
 30.9328  6.5156e-05  
 31.0088  6.54046e-05  
 31.0848  6.56466e-05  
 31.1609  6.58674e-05  
 31.2369  6.6061e-05  
 31.3129  6.62337e-05  
 31.3889  6.64001e-05  
 31.4649  6.65772e-05  
 31.5409  6.6776e-05  
 31.6169  6.69964e-05  
 31.6929  6.72273e-05  
 31.7689  6.74519e-05  
 31.8449  6.76553e-05  
 31.9209  6.78318e-05  
 31.9969  6.79872e-05  
 32.0729  6.81364e-05  
 32.1489  6.82961e-05  
 32.2249  6.84775e-05  
 32.3009  6.86805e-05  
 32.3769  6.88942e-05  
 32.4529  6.91018e-05  
 32.5289  6.92885e-05  
 32.6049  6.94485e-05  
 32.6809  6.95875e-05  
 32.7569  6.97202e-05  
 32.8329  6.98634e-05  
 32.9089  7.00282e-05  
 32.9849  7.02148e-05  
 33.0609  7.04124e-05  
 33.1369  7.06042e-05  
 33.2129  7.07754e-05  
 33.2889  7.09201e-05  
 33.3649  7.10439e-05  
 33.4409  7.11615e-05  
 33.5169  7.12896e-05  
 33.5929  7.14393e-05  
 33.6689  7.1611e-05  
 33.7449  7.17939e-05  
 33.8209  7.19715e-05  
 33.8969  7.21288e-05  
 33.9729  7.22599e-05  
 34.0489  7.23702e-05  
 34.1249  7.24744e-05  
 34.2009  7.25891e-05  
 34.2769  7.27255e-05  
 34.3529  7.28841e-05  
 34.4289  7.30543e-05  
 34.5049  7.32195e-05  
 34.5809  7.33649e-05  
 34.6569  7.34842e-05  
 34.7329  7.35831e-05  
 34.809  7.36757e-05  
 34.885  7.37791e-05  
 34.961  7.39043e-05  
 35.037  7.40518e-05  
 35.113  7.42113e-05  
 35.189  7.43662e-05  
 35.265  7.45016e-05  
 35.341  7.46114e-05  
 35.417  7.47007e-05  
 35.493  7.47841e-05  
 35.569  7.48781e-05  
 35.645  7.49941e-05  
 35.721  7.51327e-05  
 35.797  7.52836e-05  
 35.873  7.54303e-05  
 35.949  7.55579e-05  
 36.025  7.56601e-05  
 36.101  7.57421e-05  
 36.177  7.58181e-05  
 36.253  7.59049e-05  
 36.329  7.60138e-05  
 36.405  7.61455e-05  
 36.481  7.62898e-05  
 36.557  7.64303e-05  
 36.633  7.6552e-05  
 36.709  7.66487e-05  
 36.785  7.67252e-05  
 36.861  7.67959e-05  
 36.937  7.68774e-05  
 37.013  7.6981e-05  
 37.089  7.71078e-05  
 37.165  7.72473e-05  
 37.241  7.73835e-05  
 37.317  7.75012e-05  
 37.393  7.75941e-05  
 37.469  7.7667e-05  
 37.545  7.77341e-05  
 37.621  7.78119e-05  
 37.697  7.79121e-05  
 37.773  7.80354e-05  
 37.849  7.81719e-05  
 37.925  7.83053e-05  
 38.001  7.84206e-05  
 38.077  7.85113e-05  
 38.153  7.85821e-05  
 38.229  7.8647e-05  
 38.305  7.87227e-05  
 38.381  7.88207e-05  
 38.4571  7.89421e-05  
 38.5331  7.90769e-05  
 38.6091  7.92089e-05  
 38.6851  7.9323e-05  
 38.7611  7.94127e-05  
 38.8371  7.94826e-05  
 38.9131  7.95465e-05  
 38.9891  7.96213e-05  
 39.0651  7.97183e-05  
 39.1411  7.98388e-05  
 39.2171  7.99729e-05  
 39.2931  8.01045e-05  
 39.3691  8.02184e-05  
 39.4451  8.03081e-05  
 39.5211  8.03779e-05  
 39.5971  8.04418e-05  
 39.6731  8.05163e-05  
 39.7491  8.06132e-05  
 39.8251  8.07335e-05  
 39.9011  8.08677e-05  
 39.9771  8.09995e-05  
 40.0531  8.1114e-05  
 40.1291  8.12041e-05  
 40.2051  8.12745e-05  
 40.2811  8.13388e-05  
 40.3571  8.14137e-05  
 40.4331  8.15108e-05  
 40.5091  8.16314e-05  
 40.5851  8.1766e-05  
 40.6611  8.18985e-05  
 40.7371  8.20137e-05  
 40.8131  8.21047e-05  
 40.8891  8.21758e-05  
 40.9651  8.22408e-05  
 41.0411  8.23161e-05  
 41.1171  8.24136e-05  
 41.1931  8.25346e-05  
 41.2691  8.26697e-05  
 41.3451  8.28028e-05  
 41.4211  8.29188e-05  
 41.4971  8.30106e-05  
 41.5731  8.30824e-05  
 41.6491  8.31479e-05  
 41.7251  8.32236e-05  
 41.8011  8.33212e-05  
 41.8771  8.34424e-05  
 41.9531  8.35777e-05  
 42.0291  8.37112e-05  
 42.1051  8.38276e-05  
 42.1812  8.39198e-05  
 42.2572  8.39919e-05  
 42.3332  8.40575e-05  
 42.4092  8.4133e-05  
 42.4852  8.42304e-05  
 42.5612  8.43512e-05  
 42.6372  8.44862e-05  
 42.7132  8.46194e-05  
 42.7892  8.47356e-05  
 42.8652  8.48276e-05  
 42.9412  8.48994e-05  
 43.0172  8.49643e-05  
 43.0932  8.50389e-05  
 43.1692  8.51352e-05  
 43.2452  8.52549e-05  
 43.3212  8.53887e-05  
 43.3972  8.55208e-05  
 43.4732  8.56359e-05  
 43.5492  8.57268e-05  
 43.6252  8.57972e-05  
 43.7012  8.58606e-05  
 43.7772  8.59333e-05  
 43.8532  8.60275e-05  
 43.9292  8.61449e-05  
 44.0052  8.62766e-05  
 44.0812  8.64064e-05  
 44.1572  8.65194e-05  
 44.2332  8.6608e-05  
 44.3092  8.66759e-05  
 44.3852  8.67365e-05  
 44.4612  8.68061e-05  
 44.5372  8.6897e-05  
 44.6132  8.7011e-05  
 44.6892  8.71391e-05  
 44.7652  8.72655e-05  
 44.8412  8.73749e-05  
 44.9172  8.74599e-05  
 44.9932  8.7524e-05  
 45.0692  8.75804e-05  
 45.1452  8.76456e-05  
 45.2212  8.77318e-05  
 45.2972  8.78409e-05  
 45.3732  8.79641e-05  
 45.4492  8.80856e-05  
 45.5252  8.81901e-05  
 45.6012  8.827e-05  
 45.6772  8.83288e-05  
 45.7532  8.83796e-05  
 45.8293  8.84389e-05  
 45.9053  8.85188e-05  
 45.9813  8.86216e-05  
 46.0573  8.87384e-05  
 46.1333  8.88535e-05  
 46.2093  8.89516e-05  
 46.2853  8.90249e-05  
 46.3613  8.9077e-05  
 46.4373  8.91206e-05  
 46.5133  8.91725e-05  
 46.5893  8.92447e-05  
 46.6653  8.93397e-05  
 46.7413  8.94486e-05  
 46.8173  8.95558e-05  
 46.8933  8.96459e-05  
 46.9693  8.97112e-05  
 47.0453  8.97549e-05  
 47.1213  8.97901e-05  
 47.1973  8.9833e-05  
 47.2733  8.98961e-05  
 47.3493  8.99817e-05  
 47.4253  9.00813e-05  
 47.5013  9.01792e-05  
 47.5773  9.026e-05  
 47.6533  9.03159e-05  
 47.7293  9.035e-05  
 47.8053  9.03752e-05  
 47.8813  9.04079e-05  
 47.9573  9.04605e-05  
 48.0333  9.05356e-05  
 48.1093  9.06246e-05  
 48.1853  9.07119e-05  
 48.2613  9.07822e-05  
 48.3373  9.08274e-05  
 48.4133  9.08507e-05  
 48.4893  9.08648e-05  
 48.5653  9.08862e-05  
 48.6413  9.09273e-05  
 48.7173  9.09907e-05  
 48.7933  9.10681e-05  
 48.8693  9.11438e-05  
 48.9453  9.12026e-05  
 49.0213  9.12362e-05  
 49.0973  9.12478e-05  
 49.1733  9.125e-05  
 49.2493  9.12591e-05  
 49.3253  9.12878e-05  
 49.4013  9.13389e-05  
 49.4774  9.14038e-05  
 49.5534  9.14673e-05  
 49.6294  9.15139e-05  
 49.7054  9.15354e-05  
 49.7814  9.15346e-05  
 49.8574  9.15242e-05  
 49.9334  9.15207e-05  
 50.0094  9.15366e-05  
 50.0854  9.15747e-05  
 50.1614  9.16269e-05  
 50.2374  9.16778e-05  
 50.3134  9.17118e-05  
 50.3894  9.17208e-05  
 50.4654  9.17075e-05  
 50.5414  9.16844e-05  
 50.6174  9.1668e-05  
 50.6934  9.16709e-05  
 50.7694  9.16961e-05  
 50.8454  9.17354e-05  
 50.9214  9.17737e-05  
 50.9974  9.17952e-05  
 51.0734  9.17918e-05  
 51.1494  9.1766e-05  
 51.2254  9.17304e-05  
 51.3014  9.17013e-05  
 51.3774  9.16914e-05  
 51.4534  9.17039e-05  
 51.5294  9.17308e-05  
 51.6054  9.17568e-05  
 51.6814  9.17662e-05  
 51.7574  9.17508e-05  
 51.8334  9.1713e-05  
 51.9094  9.16653e-05  
 51.9854  9.16241e-05  
 52.0614  9.16021e-05  
 52.1374  9.16025e-05  
 52.2134  9.16175e-05  
 52.2894  9.16318e-05  
 52.3654  9.16299e-05  
 52.4414  9.16032e-05  
 52.5174  9.15542e-05  
 52.5934  9.14952e-05  
 52.6694  9.14427e-05  
 52.7454  9.14093e-05  
 52.8214  9.13986e-05  
 52.8974  9.14026e-05  
 52.9734  9.14063e-05  
 53.0494  9.13939e-05  
 53.1255  9.13569e-05  
 53.2015  9.12977e-05  
 53.2775  9.12285e-05  
 53.3535  9.11657e-05  
 53.4295  9.11221e-05  
 53.5055  9.11013e-05  
 53.5815  9.10955e-05  
 53.6575  9.10895e-05  
 53.7335  9.10679e-05  
 53.8095  9.10218e-05  
 53.8855  9.09536e-05  
 53.9615  9.08753e-05  
 54.0375  9.08034e-05  
 54.1135  9.07509e-05  
 54.1895  9.07212e-05  
 54.2655  9.07068e-05  
 54.3415  9.06925e-05  
 54.4175  9.06629e-05  
 54.4935  9.0609e-05  
 54.5695  9.0533e-05  
 54.6455  9.0447e-05  
 54.7215  9.03674e-05  
 54.7975  9.03071e-05  
 54.8735  9.02699e-05  
 54.9495  9.02482e-05  
 55.0255  9.0227e-05  
 55.1015  9.01907e-05  
 55.1775  9.01303e-05  
 55.2535  9.00479e-05  
 55.3295  8.99555e-05  
 55.4055  8.98695e-05  
 55.4815  8.98028e-05  
 55.5575  8.97594e-05  
 55.6335  8.97318e-05  
 55.7095  8.97049e-05  
 55.7855  8.96632e-05  
 55.8615  8.95976e-05  
 55.9375  8.95102e-05  
 56.0135  8.94126e-05  
 56.0895  8.93214e-05  
 56.1655  8.92497e-05  
 56.2415  8.92013e-05  
 56.3175  8.9169e-05  
 56.3935  8.91378e-05  
 56.4695  8.90919e-05  
 56.5455  8.90224e-05  
 56.6215  8.89311e-05  
 56.6975  8.88297e-05  
 56.7736  8.87346e-05  
 56.8496  8.86589e-05  
 56.9256  8.86068e-05  
 57.0016  8.85709e-05  
 57.0776  8.85365e-05  
 57.1536  8.84877e-05  
 57.2296  8.84154e-05  
 57.3056  8.83212e-05  
 57.3816  8.82171e-05  
 57.4576  8.81191e-05  
 57.5336  8.80407e-05  
 57.6096  8.79858e-05  
 57.6856  8.79475e-05  
 57.7616  8.79108e-05  
 57.8376  8.78601e-05  
 57.9136  8.7786e-05  
 57.9896  8.76901e-05  
 58.0656  8.75841e-05  
 58.1416  8.74843e-05  
 58.2176  8.7404e-05  
 58.2936  8.73474e-05  
 58.3696  8.73075e-05  
 58.4456  8.72695e-05  
 58.5216  8.72177e-05  
 58.5976  8.71427e-05  
 58.6736  8.70459e-05  
 58.7496  8.69389e-05  
 58.8256  8.68381e-05  
 58.9016  8.67567e-05  
 58.9776  8.66991e-05  
 59.0536  8.66585e-05  
 59.1296  8.66199e-05  
 59.2056  8.65678e-05  
 59.2816  8.64925e-05  
 59.3576  8.63955e-05  
 59.4336  8.62883e-05  
 59.5096  8.6187e-05  
 59.5856  8.61053e-05  
 59.6616  8.60474e-05  
 59.7376  8.60066e-05  
 59.8136  8.59681e-05  
 59.8896  8.59162e-05  
 59.9656  8.58413e-05  
 60.0416  8.57447e-05  
 60.1176  8.56377e-05  
 60.1936  8.55367e-05  
 60.2696  8.54551e-05  
 60.3456  8.53973e-05  
 60.4216  8.53569e-05  
 60.4977  8.5319e-05  
 60.5737  8.52678e-05  
 60.6497  8.51937e-05  
 60.7257  8.50979e-05  
 60.8017  8.49917e-05  
 60.8777  8.48913e-05  
 60.9537  8.48102e-05  
 61.0297  8.4753e-05  
 61.1057  8.47133e-05  
 61.1817  8.46763e-05  
 61.2577  8.46262e-05  
 61.3337  8.45534e-05  
 61.4097  8.44587e-05  
 61.4857  8.43535e-05  
 61.5617  8.4254e-05  
 61.6377  8.41737e-05  
 61.7137  8.41175e-05  
 61.7897  8.40787e-05  
 61.8657  8.40429e-05  
 61.9417  8.39942e-05  
 62.0177  8.39228e-05  
 62.0937  8.38296e-05  
 62.1697  8.37256e-05  
 62.2457  8.36272e-05  
 62.3217  8.3548e-05  
 62.3977  8.34928e-05  
 62.4737  8.34553e-05  
 62.5497  8.34209e-05  
 62.6257  8.33737e-05  
 62.7017  8.33039e-05  
 62.7777  8.32122e-05  
 62.8537  8.31097e-05  
 62.9297  8.30125e-05  
 63.0057  8.29345e-05  
 63.0817  8.28805e-05  
 63.1577  8.28443e-05  
 63.2337  8.28113e-05  
 63.3097  8.27658e-05  
 63.3857  8.26977e-05  
 63.4617  8.26076e-05  
 63.5377  8.25066e-05  
 63.6137  8.24108e-05  
 63.6897  8.23341e-05  
 63.7657  8.22813e-05  
 63.8417  8.22465e-05  
 63.9177  8.22151e-05  
 63.9937  8.21712e-05  
 64.0697  8.21048e-05  
 64.1458  8.20164e-05  
 64.2218  8.1917e-05  
 64.2978  8.18226e-05  
 64.3738  8.17471e-05  
 64.4498  8.16956e-05  
 64.5258  8.16621e-05  
 64.6018  8.16323e-05  
 64.6778  8.15901e-05  
 64.7538  8.15254e-05  
 64.8298  8.14387e-05  
 64.9058  8.13408e-05  
 64.9818  8.12478e-05  
 65.0578  8.11735e-05  
 65.1338  8.11233e-05  
 65.2098  8.10912e-05  
 65.2858  8.10628e-05  
 65.3618  8.10223e-05  
 65.4378  8.09593e-05  
 65.5138  8.08742e-05  
 65.5898  8.07778e-05  
 65.6658  8.06861e-05  
 65.7418  8.0613e-05  
 65.8178  8.0564e-05  
 65.8938  8.05332e-05  
 65.9698  8.05063e-05  
 66.0458  8.04673e-05  
 66.1218  8.0406e-05  
 66.1978  8.03225e-05  
 66.2738  8.02274e-05  
 66.3498  8.0137e-05  
 66.4258  8.00651e-05  
 66.5018  8.00172e-05  
 66.5778  7.99875e-05  
 66.6538  7.9962e-05  
 66.7298  7.99245e-05  
 66.8058  7.98648e-05  
 66.8818  7.97827e-05  
 66.9578  7.9689e-05  
 67.0338  7.95997e-05  
 67.1098  7.95289e-05  
 67.1858  7.9482e-05  
 67.2618  7.94535e-05  
 67.3378  7.94293e-05  
 67.4138  7.93932e-05  
 67.4898  7.93349e-05  
 67.5658  7.92542e-05  
 67.6418  7.91618e-05  
 67.7178  7.90735e-05  
 67.7939  7.90036e-05  
 67.8699  7.89577e-05  
 67.9459  7.89302e-05  
 68.0219  7.89072e-05  
 68.0979  7.88724e-05  
 68.1739  7.88154e-05  
 68.2499  7.87361e-05  
 68.3259  7.86448e-05  
 68.4019  7.85575e-05  
 68.4779  7.84884e-05  
 68.5539  7.84433e-05  
 68.6299  7.84168e-05  
 68.7059  7.83948e-05  
 68.7819  7.83612e-05  
 68.8579  7.83055e-05  
 68.9339  7.82273e-05  
 69.0099  7.81371e-05  
 69.0859  7.80506e-05  
 69.1619  7.79823e-05  
 69.2379  7.79379e-05  
 69.3139  7.79122e-05  
 69.3899  7.78912e-05  
 69.4659  7.78587e-05  
 69.5419  7.78041e-05  
 69.6179  7.7727e-05  
 69.6939  7.76377e-05  
 69.7699  7.7552e-05  
 69.8459  7.74843e-05  
 69.9219  7.74406e-05  
 69.9979  7.74155e-05  
 70.0739  7.73953e-05  
 70.1499  7.73639e-05  
 70.2259  7.73103e-05  
 70.3019  7.72342e-05  
 70.3779  7.71457e-05  
 70.4539  7.70607e-05  
 70.5299  7.69935e-05  
 70.6059  7.69503e-05  
 70.6819  7.69258e-05  
 70.7579  7.69064e-05  
 70.8339  7.68758e-05  
 70.9099  7.68232e-05  
 70.9859  7.6748e-05  
 71.0619  7.66602e-05  
 71.1379  7.65757e-05  
 71.2139  7.6509e-05  
 71.2899  7.64662e-05  
 71.3659  7.64422e-05  
 71.442  7.64234e-05  
 71.518  7.63936e-05  
 71.594  7.63419e-05  
 71.67  7.62674e-05  
 71.746  7.61803e-05  
 71.822  7.60962e-05  
 71.898  7.60298e-05  
 71.974  7.59873e-05  
 72.05  7.59638e-05  
 72.126  7.59456e-05  
 72.202  7.59165e-05  
 72.278  7.58654e-05  
 72.354  7.57917e-05  
 72.43  7.5705e-05  
 72.506  7.56214e-05  
 72.582  7.55552e-05  
 72.658  7.55129e-05  
 72.734  7.54897e-05  
 72.81  7.54719e-05  
 72.886  7.54434e-05  
 72.962  7.53931e-05  
 73.038  7.53199e-05  
 73.114  7.52337e-05  
 73.19  7.51503e-05  
 73.266  7.50843e-05  
 73.342  7.50422e-05  
 73.418  7.50192e-05  
 73.494  7.50018e-05  
 73.57  7.49738e-05  
 73.646  7.4924e-05  
 73.722  7.48514e-05  
 73.798  7.47655e-05  
 73.874  7.46824e-05  
 73.95  7.46165e-05  
 74.026  7.45744e-05  
 74.102  7.45515e-05  
 74.178  7.45344e-05  
 74.254  7.45069e-05  
 74.33  7.44576e-05  
 74.406  7.43854e-05  
 74.482  7.42998e-05  
 74.558  7.42168e-05  
 74.634  7.41509e-05  
 74.71  7.41088e-05  
 74.786  7.4086e-05  
 74.862  7.40691e-05  
 74.938  7.40419e-05  
 75.014  7.3993e-05  
 75.0901  7.39212e-05  
 75.1661  7.38359e-05  
 75.2421  7.37529e-05  
 75.3181  7.3687e-05  
 75.3941  7.36448e-05  
 75.4701  7.3622e-05  
 75.5461  7.36053e-05  
 75.6221  7.35784e-05  
 75.6981  7.35299e-05  
 75.7741  7.34583e-05  
 75.8501  7.33732e-05  
 75.9261  7.32902e-05  
 76.0021  7.32241e-05  
 76.0781  7.31818e-05  
 76.1541  7.31589e-05  
 76.2301  7.31423e-05  
 76.3061  7.31157e-05  
 76.3821  7.30674e-05  
 76.4581  7.29961e-05  
 76.5341  7.29111e-05  
 76.6101  7.28281e-05  
 76.6861  7.27618e-05  
 76.7621  7.27192e-05  
 76.8381  7.26963e-05  
 76.9141  7.26797e-05  
 76.9901  7.26532e-05  
 77.0661  7.26052e-05  
 77.1421  7.25342e-05  
 77.2181  7.24492e-05  
 77.2941  7.2366e-05  
 77.3701  7.22995e-05  
 77.4461  7.22567e-05  
 77.5221  7.22336e-05  
 77.5981  7.2217e-05  
 77.6741  7.21906e-05  
 77.7501  7.21428e-05  
 77.8261  7.20719e-05  
 77.9021  7.19869e-05  
 77.9781  7.19036e-05  
 78.0541  7.18368e-05  
 78.1301  7.17937e-05  
 78.2061  7.17704e-05  
 78.2821  7.17537e-05  
 78.3581  7.17274e-05  
 78.4341  7.16798e-05  
 78.5101  7.1609e-05  
 78.5861  7.1524e-05  
 78.6621  7.14404e-05  
 78.7382  7.13733e-05  
 78.8142  7.13298e-05  
 78.8902  7.13062e-05  
 78.9662  7.12895e-05  
 79.0422  7.12632e-05  
 79.1182  7.12157e-05  
 79.1942  7.11449e-05  
 79.2702  7.10599e-05  
 79.3462  7.09761e-05  
 79.4222  7.09086e-05  
 79.4982  7.08648e-05  
 79.5742  7.08409e-05  
 79.6502  7.0824e-05  
 79.7262  7.07977e-05  
 79.8022  7.07503e-05  
 79.8782  7.06795e-05  
 79.9542  7.05944e-05  
 80.0302  7.05103e-05  
 80.1062  7.04424e-05  
 80.1822  7.03982e-05  
 80.2582  7.03739e-05  
 80.3342  7.03568e-05  
 80.4102  7.03306e-05  
 80.4862  7.02832e-05  
 80.5622  7.02124e-05  
 80.6382  7.01271e-05  
 80.7142  7.00428e-05  
 80.7902  6.99745e-05  
 80.8662  6.99297e-05  
 80.9422  6.99052e-05  
 81.0182  6.98879e-05  
 81.0942  6.98615e-05  
 81.1702  6.98141e-05  
 81.2462  6.97434e-05  
 81.3222  6.96579e-05  
 81.3982  6.95732e-05  
 81.4742  6.95045e-05  
 81.5502  6.94593e-05  
 81.6262  6.94343e-05  
 81.7022  6.94168e-05  
 81.7782  6.93904e-05  
 81.8542  6.93429e-05  
 81.9302  6.92721e-05  
 82.0062  6.91865e-05  
 82.0822  6.91015e-05  
 82.1582  6.90322e-05  
 82.2342  6.89865e-05  
 82.3102  6.89611e-05  
 82.3862  6.89433e-05  
 82.4623  6.89168e-05  
 82.5383  6.88694e-05  
 82.6143  6.87985e-05  
 82.6903  6.87127e-05  
 82.7663  6.86273e-05  
 82.8423  6.85575e-05  
 82.9183  6.85113e-05  
 82.9943  6.84855e-05  
 83.0703  6.84674e-05  
 83.1463  6.84408e-05  
 83.2223  6.83933e-05  
 83.2983  6.83223e-05  
 83.3743  6.82363e-05  
 83.4503  6.81505e-05  
 83.5263  6.80802e-05  
 83.6023  6.80335e-05  
 83.6783  6.80072e-05  
 83.7543  6.79888e-05  
 83.8303  6.79621e-05  
 83.9063  6.79145e-05  
 83.9823  6.78434e-05  
 84.0583  6.77571e-05  
 84.1343  6.7671e-05  
 84.2103  6.76002e-05  
 84.2863  6.75529e-05  
 84.3623  6.75262e-05  
 84.4383  6.75075e-05  
 84.5143  6.74806e-05  
 84.5903  6.74329e-05  
 84.6663  6.73617e-05  
 84.7423  6.72752e-05  
 84.8183  6.71886e-05  
 84.8943  6.71173e-05  
 84.9703  6.70695e-05  
 85.0463  6.70423e-05  
 85.1223  6.70233e-05  
 85.1983  6.69962e-05  
 85.2743  6.69484e-05  
 85.3503  6.68771e-05  
 85.4263  6.67904e-05  
 85.5023  6.67034e-05  
 85.5783  6.66315e-05  
 85.6543  6.65831e-05  
 85.7303  6.65554e-05  
 85.8063  6.65361e-05  
 85.8823  6.65088e-05  
 85.9583  6.6461e-05  
 86.0343  6.63896e-05  
 86.1104  6.63025e-05  
 86.1864  6.62151e-05  
 86.2624  6.61427e-05  
 86.3384  6.60937e-05  
 86.4144  6.60655e-05  
 86.4904  6.60459e-05  
 86.5664  6.60184e-05  
 86.6424  6.59705e-05  
 86.7184  6.58989e-05  
 86.7944  6.58116e-05  
 86.8704  6.57238e-05  
 86.9464  6.56509e-05  
 87.0224  6.56013e-05  
 87.0984  6.55726e-05  
 87.1744  6.55526e-05  
 87.2504  6.5525e-05  
 87.3264  6.54769e-05  
 87.4024  6.54053e-05  
 87.4784  6.53177e-05  
 87.5544  6.52294e-05  
 87.6304  6.5156e-05  
 87.7064  6.51058e-05  
 87.7824  6.50766e-05  
 87.8584  6.50563e-05  
 87.9344  6.50284e-05  
 88.0104  6.49803e-05  
 88.0864  6.49085e-05  
 88.1624  6.48207e-05  
 88.2384  6.4732e-05  
 88.3144  6.4658e-05  
 88.3904  6.46072e-05  
 88.4664  6.45776e-05  
 88.5424  6.45569e-05  
 88.6184  6.45288e-05  
 88.6944  6.44806e-05  
 88.7704  6.44086e-05  
 88.8464  6.43206e-05  
 88.9224  6.42315e-05  
 88.9984  6.41569e-05  
 89.0744  6.41056e-05  
 89.1504  6.40754e-05  
 89.2264  6.40544e-05  
 89.3024  6.40261e-05  
 89.3784  6.39778e-05  
 89.4544  6.39057e-05  
 89.5304  6.38174e-05  
 89.6064  6.37279e-05  
 89.6824  6.36528e-05  
 89.7585  6.36009e-05  
 89.8345  6.35702e-05  
 89.9105  6.35488e-05  
 89.9865  6.35204e-05  
 90.0625  6.3472e-05  
 90.1385  6.33998e-05  
 90.2145  6.33112e-05  
 90.2905  6.32213e-05  
 90.3665  6.31456e-05  
 90.4425  6.30931e-05  
 90.5185  6.3062e-05  
 90.5945  6.30402e-05  
 90.6705  6.30117e-05  
 90.7465  6.29631e-05  
 90.8225  6.28908e-05  
 90.8985  6.2802e-05  
 90.9745  6.27117e-05  
 91.0505  6.26355e-05  
 91.1265  6.25824e-05  
 91.2025  6.25508e-05  
 91.2785  6.25287e-05  
 91.3545  6.24999e-05  
 91.4305  6.24513e-05  
 91.5065  6.23789e-05  
 91.5825  6.22899e-05  
 91.6585  6.21991e-05  
 91.7345  6.21224e-05  
 91.8105  6.20688e-05  
 91.8865  6.20367e-05  
 91.9625  6.20143e-05  
 92.0385  6.19853e-05  
 92.1145  6.19366e-05  
 92.1905  6.18641e-05  
 92.2665  6.17748e-05  
 92.3425  6.16837e-05  
 92.4185  6.16065e-05  
 92.4945  6.15523e-05  
 92.5705  6.15197e-05  
 92.6465  6.1497e-05  
 92.7225  6.14679e-05  
 92.7985  6.14191e-05  
 92.8745  6.13465e-05  
 92.9505  6.1257e-05  
 93.0265  6.11655e-05  
 93.1025  6.10878e-05  
 93.1785  6.10331e-05  
 93.2545  6.1e-05  
 93.3305  6.0977e-05  
 93.4066  6.09477e-05  
 93.4826  6.08988e-05  
 93.5586  6.08261e-05  
 93.6346  6.07365e-05  
 93.7106  6.06446e-05  
 93.7866  6.05664e-05  
 93.8626  6.05111e-05  
 93.9386  6.04776e-05  
 94.0146  6.04542e-05  
 94.0906  6.04248e-05  
 94.1666  6.03759e-05  
 94.2426  6.03032e-05  
 94.3186  6.02133e-05  
 94.3946  6.01211e-05  
 94.4706  6.00424e-05  
 94.5466  5.99866e-05  
 94.6226  5.99526e-05  
 94.6986  5.99289e-05  
 94.7746  5.98994e-05  
 94.8506  5.98504e-05  
 94.9266  5.97776e-05  
 95.0026  5.96876e-05  
 95.0786  5.9595e-05  
 95.1546  5.95158e-05  
 95.2306  5.94596e-05  
 95.3066  5.94251e-05  
 95.3826  5.94012e-05  
 95.4586  5.93715e-05  
 95.5346  5.93225e-05  
 95.6106  5.92496e-05  
 95.6866  5.91594e-05  
 95.7626  5.90666e-05  
 95.8386  5.89869e-05  
 95.9146  5.89301e-05  
 95.9906  5.88952e-05  
 96.0666  5.8871e-05  
 96.1426  5.88412e-05  
 96.2186  5.87922e-05  
 96.2946  5.87193e-05  
 96.3706  5.8629e-05  
 96.4466  5.85358e-05  
 96.5226  5.84556e-05  
 96.5986  5.83984e-05  
 96.6746  5.83631e-05  
 96.7506  5.83386e-05  
 96.8266  5.83087e-05  
 96.9026  5.82597e-05  
 96.9786  5.81868e-05  
 97.0547  5.80963e-05  
 97.1307  5.80028e-05  
 97.2067  5.79222e-05  
 97.2827  5.78645e-05  
 97.3587  5.78288e-05  
 97.4347  5.7804e-05  
 97.5107  5.7774e-05  
 97.5867  5.7725e-05  
 97.6627  5.76521e-05  
 97.7387  5.75615e-05  
 97.8147  5.74677e-05  
 97.8907  5.73867e-05  
 97.9667  5.73285e-05  
 98.0427  5.72924e-05  
 98.1187  5.72674e-05  
 98.1947  5.72374e-05  
 98.2707  5.71884e-05  
 98.3467  5.71154e-05  
 98.4227  5.70247e-05  
 98.4987  5.69307e-05  
 98.5747  5.68493e-05  
 98.6507  5.67906e-05  
 98.7267  5.67541e-05  
 98.8027  5.67289e-05  
 98.8787  5.66988e-05  
 98.9547  5.66498e-05  
 99.0307  5.65769e-05  
 99.1067  5.64861e-05  
 99.1827  5.63918e-05  
 99.2587  5.631e-05  
 99.3347  5.62509e-05  
 99.4107  5.62141e-05  
 99.4867  5.61886e-05  
 99.5627  5.61584e-05  
 99.6387  5.61095e-05  
 99.7147  5.60366e-05  
 99.7907  5.59458e-05  
 99.8667  5.58512e-05  
 99.9427  5.57691e-05  
 100.019  5.57095e-05  